  Measurement Number     Measurement type
                   2                DC IV

      Measurement ID             SeriesID
       739668.780237                    0

         MeasureMode                Bias1                Bias2
                   2                    2                   -1

                Step  Positive compliance  Negative compliance
                0.05                1e-05                1e-05

  RealMeasuredPoints
                 124

        Bias        Current     Resistance
0.0000e+00   -7.8100e-12   -0.0000e+00
5.0000e-02   -1.1200e-12   -4.4643e+10
1.0000e-01   4.1400e-12   2.4155e+10
1.5000e-01   1.2800e-12   1.1719e+11
2.0000e-01   -3.2000e-13   -6.2500e+11
2.5000e-01   8.3900e-12   2.9797e+10
3.0000e-01   8.8800e-12   3.3784e+10
3.5000e-01   -1.7300e-12   -2.0231e+11
4.0000e-01   -2.6700e-12   -1.4981e+11
4.5000e-01   7.8000e-13   5.7692e+11
5.0000e-01   3.6700e-12   1.3624e+11
5.5000e-01   -1.0300e-12   -5.3398e+11
6.0000e-01   -2.7100e-12   -2.2140e+11
6.5000e-01   -3.4000e-13   -1.9118e+12
7.0000e-01   1.5200e-12   4.6053e+11
7.5000e-01   2.0800e-12   3.6058e+11
8.0000e-01   -5.9900e-12   -1.3356e+11
8.5000e-01   -6.3600e-12   -1.3365e+11
9.0000e-01   2.6800e-12   3.3582e+11
9.5000e-01   5.8000e-12   1.6379e+11
1.0000e+00   2.3800e-12   4.2017e+11
1.0500e+00   7.6000e-13   1.3816e+12
1.1000e+00   1.3010e-11   8.4550e+10
1.1500e+00   4.7760e-11   2.4079e+10
1.2000e+00   4.0630e-11   2.9535e+10
1.2500e+00   3.7990e-11   3.2903e+10
1.3000e+00   4.3570e-11   2.9837e+10
1.3500e+00   4.8250e-11   2.7979e+10
1.4000e+00   5.0050e-11   2.7972e+10
1.4500e+00   7.7940e-11   1.8604e+10
1.5000e+00   9.1260e-11   1.6437e+10
1.5500e+00   5.2610e-11   2.9462e+10
1.6000e+00   1.3230e-11   1.2094e+11
1.6500e+00   2.0890e-11   7.8985e+10
1.7000e+00   2.1430e-11   7.9328e+10
1.7500e+00   6.2423e-10   2.8035e+09
1.8000e+00   5.5765e-10   3.2278e+09
1.8500e+00   5.3482e-10   3.4591e+09
1.9000e+00   3.8506e-10   4.9343e+09
1.9500e+00   6.5900e-10   2.9590e+09
2.0000e+00   5.9255e-10   3.3752e+09
2.0000e+00   5.7249e-10   3.4935e+09
1.9500e+00   6.4467e-10   3.0248e+09
1.9000e+00   6.0703e-10   3.1300e+09
1.8500e+00   5.9257e-10   3.1220e+09
1.8000e+00   5.5359e-10   3.2515e+09
1.7500e+00   5.2073e-10   3.3607e+09
1.7000e+00   4.9190e-10   3.4560e+09
1.6500e+00   4.5833e-10   3.6000e+09
1.6000e+00   4.5131e-10   3.5452e+09
1.5500e+00   3.0888e-10   5.0181e+09
1.5000e+00   2.9203e-10   5.1365e+09
1.4500e+00   2.6912e-10   5.3879e+09
1.4000e+00   2.6159e-10   5.3519e+09
1.3500e+00   1.9176e-10   7.0401e+09
1.3000e+00   1.3806e-10   9.4162e+09
1.2500e+00   1.0784e-10   1.1591e+10
1.2000e+00   1.5052e-10   7.9724e+09
1.1500e+00   1.2314e-10   9.3390e+09
1.1000e+00   7.1400e-11   1.5406e+10
1.0500e+00   9.0520e-11   1.1600e+10
1.0000e+00   6.8160e-11   1.4671e+10
9.5000e-01   7.6070e-11   1.2488e+10
9.0000e-01   1.7910e-11   5.0251e+10
8.5000e-01   1.1190e-11   7.5961e+10
8.0000e-01   9.7800e-12   8.1800e+10
7.5000e-01   9.1000e-13   8.2418e+11
7.0000e-01   -3.0300e-12   -2.3102e+11
6.5000e-01   -3.1200e-12   -2.0833e+11
6.0000e-01   3.4200e-12   1.7544e+11
5.5000e-01   -3.4600e-12   -1.5896e+11
5.0000e-01   -5.4200e-12   -9.2251e+10
4.5000e-01   -4.1900e-12   -1.0740e+11
4.0000e-01   -9.9000e-13   -4.0404e+11
3.5000e-01   9.4000e-13   3.7234e+11
3.0000e-01   -9.5200e-12   -3.1513e+10
2.5000e-01   -9.5100e-12   -2.6288e+10
2.0000e-01   -3.6100e-12   -5.5402e+10
1.5000e-01   1.3600e-12   1.1029e+11
1.0000e-01   1.7200e-12   5.8140e+10
5.0000e-02   -1.0160e-11   -4.9213e+09
0.0000e+00   -1.0140e-11   -0.0000e+00
0.0000e+00   4.8200e-12   0.0000e+00
-5.0000e-02   5.4000e-13   -9.2593e+10
-1.0000e-01   -6.5400e-12   1.5291e+10
-1.5000e-01   -8.3000e-12   1.8072e+10
-2.0000e-01   -3.3900e-12   5.8997e+10
-2.5000e-01   -1.8000e-13   1.3889e+12
-3.0000e-01   3.4300e-12   -8.7464e+10
-3.5000e-01   -7.5400e-12   4.6419e+10
-4.0000e-01   -4.8000e-12   8.3333e+10
-4.5000e-01   -2.1900e-12   2.0548e+11
-5.0000e-01   2.3000e-12   -2.1739e+11
-5.5000e-01   -9.1000e-13   6.0440e+11
-6.0000e-01   -5.8100e-12   1.0327e+11
-6.5000e-01   -3.6000e-12   1.8056e+11
-7.0000e-01   4.2600e-12   -1.6432e+11
-7.5000e-01   1.4700e-12   -5.1020e+11
-8.0000e-01   -3.4600e-12   2.3121e+11
-8.5000e-01   -4.8500e-12   1.7526e+11
-9.0000e-01   4.7900e-12   -1.8789e+11
-9.5000e-01   4.2000e-12   -2.2619e+11
-1.0000e+00   7.9000e-13   -1.2658e+12
-1.0000e+00   -5.7300e-12   1.7452e+11
-9.5000e-01   2.5100e-12   -3.7849e+11
-9.0000e-01   5.5300e-12   -1.6275e+11
-8.5000e-01   2.2400e-12   -3.7946e+11
-8.0000e-01   9.2000e-13   -8.6957e+11
-7.5000e-01   -9.8100e-12   7.6453e+10
-7.0000e-01   -9.0800e-12   7.7093e+10
-6.5000e-01   2.3200e-12   -2.8017e+11
-6.0000e-01   7.9000e-13   -7.5949e+11
-5.5000e-01   3.6100e-12   -1.5235e+11
-5.0000e-01   -3.4100e-12   1.4663e+11
-4.5000e-01   -1.6400e-12   2.7439e+11
-4.0000e-01   2.3300e-12   -1.7167e+11
-3.5000e-01   5.1400e-12   -6.8093e+10
-3.0000e-01   1.3000e-12   -2.3077e+11
-2.5000e-01   1.0000e-13   -2.5000e+12
-2.0000e-01   8.3400e-12   -2.3981e+10
-1.5000e-01   1.0590e-11   -1.4164e+10
-1.0000e-01   2.4800e-12   -4.0323e+10
-5.0000e-02   -5.8000e-13   8.6207e+10
0.0000e+00   -1.8500e-12   -0.0000e+00
