  Measurement Number     Measurement type
                   4                DC IV

      Measurement ID             SeriesID
       739668.768423                    0

         MeasureMode                Bias1                Bias2
                   2                    2                   -1

                Step  Positive compliance  Negative compliance
                0.05                1e-05                1e-05

  RealMeasuredPoints
                 124

        Bias        Current     Resistance
0.0000e+00   -9.6000e-13   -0.0000e+00
5.0000e-02   4.8600e-12   1.0288e+10
1.0000e-01   -4.0800e-12   -2.4510e+10
1.5000e-01   -7.9600e-12   -1.8844e+10
2.0000e-01   2.5100e-12   7.9681e+10
2.5000e-01   6.7200e-12   3.7202e+10
3.0000e-01   4.1600e-12   7.2115e+10
3.5000e-01   4.0900e-12   8.5575e+10
4.0000e-01   1.3130e-11   3.0465e+10
4.5000e-01   1.1340e-11   3.9683e+10
5.0000e-01   1.5800e-12   3.1646e+11
5.5000e-01   2.1000e-12   2.6190e+11
6.0000e-01   8.6900e-12   6.9045e+10
6.5000e-01   1.0210e-11   6.3663e+10
7.0000e-01   1.2450e-11   5.6225e+10
7.5000e-01   1.1980e-11   6.2604e+10
8.0000e-01   1.2110e-11   6.6061e+10
8.5000e-01   2.0310e-11   4.1851e+10
9.0000e-01   2.4770e-11   3.6334e+10
9.5000e-01   4.1460e-11   2.2914e+10
1.0000e+00   4.4410e-11   2.2517e+10
1.0500e+00   8.4180e-11   1.2473e+10
1.1000e+00   1.0433e-10   1.0543e+10
1.1500e+00   8.1490e-11   1.4112e+10
1.2000e+00   1.4398e-10   8.3345e+09
1.2500e+00   1.6633e-10   7.5152e+09
1.3000e+00   1.8157e-10   7.1598e+09
1.3500e+00   2.2176e-10   6.0877e+09
1.4000e+00   2.4279e-10   5.7663e+09
1.4500e+00   3.6981e-10   3.9209e+09
1.5000e+00   3.4961e-10   4.2905e+09
1.5500e+00   4.9158e-10   3.1531e+09
1.6000e+00   3.4154e-10   4.6847e+09
1.6500e+00   7.8245e-10   2.1088e+09
1.7000e+00   7.2433e-10   2.3470e+09
1.7500e+00   8.5316e-10   2.0512e+09
1.8000e+00   1.3781e-09   1.3061e+09
1.8500e+00   1.3135e-09   1.4085e+09
1.9000e+00   1.8606e-09   1.0212e+09
1.9500e+00   2.0646e-09   9.4449e+08
2.0000e+00   2.3506e-09   8.5085e+08
2.0000e+00   2.7231e-09   7.3446e+08
1.9500e+00   2.0188e-09   9.6592e+08
1.9000e+00   1.3864e-09   1.3705e+09
1.8500e+00   1.8767e-09   9.8577e+08
1.8000e+00   1.4470e-09   1.2440e+09
1.7500e+00   1.4530e-09   1.2044e+09
1.7000e+00   1.1372e-09   1.4949e+09
1.6500e+00   1.1010e-09   1.4986e+09
1.6000e+00   1.2007e-09   1.3326e+09
1.5500e+00   9.8000e-10   1.5816e+09
1.5000e+00   7.6193e-10   1.9687e+09
1.4500e+00   8.8620e-10   1.6362e+09
1.4000e+00   2.3404e-10   5.9819e+09
1.3500e+00   4.5165e-10   2.9890e+09
1.3000e+00   3.7196e-10   3.4950e+09
1.2500e+00   3.9175e-10   3.1908e+09
1.2000e+00   2.2769e-10   5.2703e+09
1.1500e+00   1.5385e-10   7.4748e+09
1.1000e+00   9.1100e-11   1.2075e+10
1.0500e+00   7.4320e-11   1.4128e+10
1.0000e+00   8.7680e-11   1.1405e+10
9.5000e-01   3.8480e-11   2.4688e+10
9.0000e-01   3.1840e-11   2.8266e+10
8.5000e-01   4.6240e-11   1.8382e+10
8.0000e-01   2.0520e-11   3.8986e+10
7.5000e-01   2.0660e-11   3.6302e+10
7.0000e-01   3.0500e-12   2.2951e+11
6.5000e-01   3.0300e-12   2.1452e+11
6.0000e-01   1.3740e-11   4.3668e+10
5.5000e-01   6.2500e-12   8.8000e+10
5.0000e-01   -1.9000e-13   -2.6316e+12
4.5000e-01   -5.8700e-12   -7.6661e+10
4.0000e-01   -7.1100e-12   -5.6259e+10
3.5000e-01   -5.1700e-12   -6.7698e+10
3.0000e-01   -2.1800e-12   -1.3761e+11
2.5000e-01   -1.0760e-11   -2.3234e+10
2.0000e-01   -1.5040e-11   -1.3298e+10
1.5000e-01   -6.2800e-12   -2.3885e+10
1.0000e-01   -4.3200e-12   -2.3148e+10
5.0000e-02   9.5000e-13   5.2632e+10
0.0000e+00   -1.0700e-11   -0.0000e+00
0.0000e+00   -1.0100e-12   -0.0000e+00
-5.0000e-02   -7.4800e-12   6.6845e+09
-1.0000e-01   5.1200e-12   -1.9531e+10
-1.5000e-01   4.4700e-12   -3.3557e+10
-2.0000e-01   -2.5600e-12   7.8125e+10
-2.5000e-01   -4.3100e-12   5.8005e+10
-3.0000e-01   -7.8000e-12   3.8462e+10
-3.5000e-01   2.8000e-13   -1.2500e+12
-4.0000e-01   -5.4000e-13   7.4074e+11
-4.5000e-01   -9.4800e-12   4.7468e+10
-5.0000e-01   -1.2100e-11   4.1322e+10
-5.5000e-01   -1.0730e-11   5.1258e+10
-6.0000e-01   -7.4300e-12   8.0754e+10
-6.5000e-01   -1.7620e-11   3.6890e+10
-7.0000e-01   -2.3170e-11   3.0211e+10
-7.5000e-01   -1.3910e-11   5.3918e+10
-8.0000e-01   -1.1070e-11   7.2267e+10
-8.5000e-01   -1.2690e-11   6.6982e+10
-9.0000e-01   -1.8430e-11   4.8833e+10
-9.5000e-01   -3.0380e-11   3.1271e+10
-1.0000e+00   -3.4250e-11   2.9197e+10
-1.0000e+00   -2.8300e-11   3.5336e+10
-9.5000e-01   -5.3430e-11   1.7780e+10
-9.0000e-01   -1.5760e-11   5.7107e+10
-8.5000e-01   -1.0550e-11   8.0569e+10
-8.0000e-01   -1.3450e-11   5.9480e+10
-7.5000e-01   -4.0300e-12   1.8610e+11
-7.0000e-01   2.7100e-12   -2.5830e+11
-6.5000e-01   1.0300e-12   -6.3107e+11
-6.0000e-01   5.4000e-13   -1.1111e+12
-5.5000e-01   -1.0800e-12   5.0926e+11
-5.0000e-01   4.8600e-12   -1.0288e+11
-4.5000e-01   8.1200e-12   -5.5419e+10
-4.0000e-01   4.7900e-12   -8.3507e+10
-3.5000e-01   3.2600e-12   -1.0736e+11
-3.0000e-01   -1.5500e-12   1.9355e+11
-2.5000e-01   7.4100e-12   -3.3738e+10
-2.0000e-01   9.9700e-12   -2.0060e+10
-1.5000e-01   6.1800e-12   -2.4272e+10
-1.0000e-01   3.2600e-12   -3.0675e+10
-5.0000e-02   1.5400e-12   -3.2468e+10
0.0000e+00   1.3410e-11   0.0000e+00
