  Measurement Number     Measurement type
                   3                DC IV

      Measurement ID             SeriesID
       739598.691244                    0

         MeasureMode                Bias1                Bias2
                   2                    1                   -1

                Step  Positive compliance  Negative compliance
                0.05                1e-05                1e-05

  RealMeasuredPoints
                  84

        Bias        Current     Resistance
0.0000e+00   3.8333e-08   0.0000e+00
5.0000e-02   1.0000e-05   5.0000e+03
1.0000e-01   1.0000e-05   1.0000e+04
1.5000e-01   1.0000e-05   1.5000e+04
2.0000e-01   1.0000e-05   2.0000e+04
2.5000e-01   9.9999e-06   2.5000e+04
3.0000e-01   9.9999e-06   3.0000e+04
3.5000e-01   1.0000e-05   3.5000e+04
4.0000e-01   1.0000e-05   4.0000e+04
4.5000e-01   1.0000e-05   4.5000e+04
5.0000e-01   1.0000e-05   5.0000e+04
5.5000e-01   1.0000e-05   5.4999e+04
6.0000e-01   1.0000e-05   5.9999e+04
6.5000e-01   1.0000e-05   6.5000e+04
7.0000e-01   9.9999e-06   7.0001e+04
7.5000e-01   1.0000e-05   7.4999e+04
8.0000e-01   1.0000e-05   8.0000e+04
8.5000e-01   9.9999e-06   8.5001e+04
9.0000e-01   1.0000e-05   8.9999e+04
9.5000e-01   9.9999e-06   9.5001e+04
1.0000e+00   1.0000e-05   1.0000e+05
1.0000e+00   1.0000e-05   9.9999e+04
9.5000e-01   1.0000e-05   9.5000e+04
9.0000e-01   9.9999e-06   9.0001e+04
8.5000e-01   1.0000e-05   8.5000e+04
8.0000e-01   1.0000e-05   8.0000e+04
7.5000e-01   1.0000e-05   7.4999e+04
7.0000e-01   9.9999e-06   7.0001e+04
6.5000e-01   1.0000e-05   6.4999e+04
6.0000e-01   1.0000e-05   5.9999e+04
5.5000e-01   9.9999e-06   5.5001e+04
5.0000e-01   1.0000e-05   5.0000e+04
4.5000e-01   9.9999e-06   4.5000e+04
4.0000e-01   1.0000e-05   4.0000e+04
3.5000e-01   1.0000e-05   3.4999e+04
3.0000e-01   1.0000e-05   3.0000e+04
2.5000e-01   1.0000e-05   2.5000e+04
2.0000e-01   1.0000e-05   2.0000e+04
1.5000e-01   9.9999e-06   1.5000e+04
1.0000e-01   1.0000e-05   1.0000e+04
5.0000e-02   1.0000e-05   5.0000e+03
0.0000e+00   2.8206e-08   0.0000e+00
0.0000e+00   4.0598e-08   0.0000e+00
-5.0000e-02   -9.9999e-06   5.0001e+03
-1.0000e-01   -9.9999e-06   1.0000e+04
-1.5000e-01   -9.9999e-06   1.5000e+04
-2.0000e-01   -1.0000e-05   2.0000e+04
-2.5000e-01   -9.9999e-06   2.5000e+04
-3.0000e-01   -9.9999e-06   3.0000e+04
-3.5000e-01   -9.9999e-06   3.5000e+04
-4.0000e-01   -1.0000e-05   4.0000e+04
-4.5000e-01   -9.9999e-06   4.5000e+04
-5.0000e-01   -1.0000e-05   5.0000e+04
-5.5000e-01   -1.0000e-05   5.5000e+04
-6.0000e-01   -1.0000e-05   6.0000e+04
-6.5000e-01   -1.0000e-05   6.5000e+04
-7.0000e-01   -9.9999e-06   7.0001e+04
-7.5000e-01   -1.0000e-05   7.4999e+04
-8.0000e-01   -1.0000e-05   8.0000e+04
-8.5000e-01   -9.9999e-06   8.5001e+04
-9.0000e-01   -1.0000e-05   9.0000e+04
-9.5000e-01   -1.0000e-05   9.4999e+04
-1.0000e+00   -9.9999e-06   1.0000e+05
-1.0000e+00   -9.9999e-06   1.0000e+05
-9.5000e-01   -1.0000e-05   9.5000e+04
-9.0000e-01   -1.0000e-05   8.9998e+04
-8.5000e-01   -1.0000e-05   8.5000e+04
-8.0000e-01   -9.9999e-06   8.0001e+04
-7.5000e-01   -1.0000e-05   7.5000e+04
-7.0000e-01   -1.0000e-05   7.0000e+04
-6.5000e-01   -1.0000e-05   6.5000e+04
-6.0000e-01   -1.0000e-05   5.9999e+04
-5.5000e-01   -1.0000e-05   5.5000e+04
-5.0000e-01   -9.9999e-06   5.0001e+04
-4.5000e-01   -1.0000e-05   4.5000e+04
-4.0000e-01   -9.9999e-06   4.0000e+04
-3.5000e-01   -1.0000e-05   3.5000e+04
-3.0000e-01   -9.9999e-06   3.0000e+04
-2.5000e-01   -1.0000e-05   2.5000e+04
-2.0000e-01   -1.0000e-05   2.0000e+04
-1.5000e-01   -1.0000e-05   1.5000e+04
-1.0000e-01   -9.9999e-06   1.0000e+04
-5.0000e-02   -1.0000e-05   5.0000e+03
0.0000e+00   3.8328e-08   0.0000e+00
