  Measurement Number     Measurement type
                   2                DC IV

      Measurement ID             SeriesID
       739598.713839                    0

         MeasureMode                Bias1                Bias2
                   2                    1                   -1

                Step  Positive compliance  Negative compliance
                0.05                1e-06                1e-06

  RealMeasuredPoints
                  84

        Bias        Current     Resistance
0.0000e+00   7.0080e-09   0.0000e+00
5.0000e-02   9.9998e-07   5.0001e+04
1.0000e-01   9.9998e-07   1.0000e+05
1.5000e-01   9.9998e-07   1.5000e+05
2.0000e-01   9.9998e-07   2.0000e+05
2.5000e-01   9.9998e-07   2.5001e+05
3.0000e-01   9.9998e-07   3.0001e+05
3.5000e-01   9.9998e-07   3.5001e+05
4.0000e-01   9.9998e-07   4.0001e+05
4.5000e-01   1.0000e-06   4.5000e+05
5.0000e-01   1.0000e-06   5.0000e+05
5.5000e-01   1.0000e-06   5.5000e+05
6.0000e-01   9.9998e-07   6.0001e+05
6.5000e-01   1.0000e-06   6.5000e+05
7.0000e-01   9.9998e-07   7.0001e+05
7.5000e-01   1.0000e-06   7.5000e+05
8.0000e-01   9.9998e-07   8.0002e+05
8.5000e-01   1.0000e-06   8.5000e+05
9.0000e-01   9.9998e-07   9.0002e+05
9.5000e-01   9.9998e-07   9.5002e+05
1.0000e+00   1.0000e-06   1.0000e+06
1.0000e+00   1.0000e-06   1.0000e+06
9.5000e-01   9.9998e-07   9.5002e+05
9.0000e-01   9.9998e-07   9.0002e+05
8.5000e-01   1.0000e-06   8.5000e+05
8.0000e-01   9.9996e-07   8.0003e+05
7.5000e-01   9.9996e-07   7.5003e+05
7.0000e-01   1.0000e-06   7.0000e+05
6.5000e-01   9.9996e-07   6.5003e+05
6.0000e-01   1.0000e-06   5.9999e+05
5.5000e-01   9.9998e-07   5.5001e+05
5.0000e-01   9.9998e-07   5.0001e+05
4.5000e-01   9.9998e-07   4.5001e+05
4.0000e-01   1.0000e-06   4.0000e+05
3.5000e-01   9.9998e-07   3.5001e+05
3.0000e-01   9.9998e-07   3.0001e+05
2.5000e-01   1.0000e-06   2.5000e+05
2.0000e-01   9.9998e-07   2.0000e+05
1.5000e-01   9.9996e-07   1.5001e+05
1.0000e-01   1.0000e-06   1.0000e+05
5.0000e-02   1.0000e-06   5.0000e+04
0.0000e+00   1.2276e-08   0.0000e+00
0.0000e+00   1.0099e-08   0.0000e+00
-5.0000e-02   -1.0000e-06   4.9999e+04
-1.0000e-01   -1.0000e-06   9.9996e+04
-1.5000e-01   -1.0000e-06   1.5000e+05
-2.0000e-01   -1.0000e-06   2.0000e+05
-2.5000e-01   -1.0000e-06   2.4999e+05
-3.0000e-01   -1.0000e-06   2.9999e+05
-3.5000e-01   -1.0000e-06   3.4999e+05
-4.0000e-01   -1.0000e-06   3.9999e+05
-4.5000e-01   -1.0000e-06   4.4999e+05
-5.0000e-01   -1.0000e-06   4.9999e+05
-5.5000e-01   -1.0000e-06   5.4999e+05
-6.0000e-01   -1.0000e-06   5.9999e+05
-6.5000e-01   -1.0000e-06   6.4999e+05
-7.0000e-01   -1.0000e-06   6.9997e+05
-7.5000e-01   -1.0000e-06   7.4997e+05
-8.0000e-01   -1.0000e-06   7.9998e+05
-8.5000e-01   -1.0000e-06   8.4997e+05
-9.0000e-01   -1.0000e-06   8.9996e+05
-9.5000e-01   -1.0000e-06   9.4998e+05
-1.0000e+00   -1.0000e-06   9.9998e+05
-1.0000e+00   -1.0000e-06   9.9998e+05
-9.5000e-01   -1.0000e-06   9.4996e+05
-9.0000e-01   -1.0000e-06   8.9998e+05
-8.5000e-01   -1.0000e-06   8.5000e+05
-8.0000e-01   -1.0000e-06   7.9998e+05
-7.5000e-01   -1.0000e-06   7.4999e+05
-7.0000e-01   -1.0000e-06   6.9997e+05
-6.5000e-01   -1.0000e-06   6.4999e+05
-6.0000e-01   -1.0000e-06   5.9999e+05
-5.5000e-01   -1.0000e-06   5.4999e+05
-5.0000e-01   -1.0000e-06   4.9999e+05
-4.5000e-01   -1.0000e-06   4.4999e+05
-4.0000e-01   -1.0000e-06   3.9999e+05
-3.5000e-01   -1.0000e-06   3.4999e+05
-3.0000e-01   -1.0000e-06   3.0000e+05
-2.5000e-01   -1.0000e-06   2.5000e+05
-2.0000e-01   -1.0000e-06   2.0000e+05
-1.5000e-01   -1.0000e-06   1.5000e+05
-1.0000e-01   -1.0000e-06   9.9998e+04
-5.0000e-02   -1.0000e-06   4.9999e+04
0.0000e+00   7.4556e-09   0.0000e+00
