  Measurement Number     Measurement type
                   8                DC IV

      Measurement ID             SeriesID
       739598.714880                    0

         MeasureMode                Bias1                Bias2
                   2                  1.5                 -1.5

                Step  Positive compliance  Negative compliance
                0.05                0.001                0.001

  RealMeasuredPoints
                 124

        Bias        Current     Resistance
0.0000e+00   1.1343e-08   0.0000e+00
5.0000e-02   3.8218e-06   1.3083e+04
1.0000e-01   7.5883e-06   1.3178e+04
1.5000e-01   1.1388e-05   1.3172e+04
2.0000e-01   1.5276e-05   1.3092e+04
2.5000e-01   1.9104e-05   1.3086e+04
3.0000e-01   2.3256e-05   1.2900e+04
3.5000e-01   2.7308e-05   1.2817e+04
4.0000e-01   3.1606e-05   1.2656e+04
4.5000e-01   3.5758e-05   1.2585e+04
5.0000e-01   3.9982e-05   1.2506e+04
5.5000e-01   4.4656e-05   1.2316e+04
6.0000e-01   4.8898e-05   1.2270e+04
6.5000e-01   5.3438e-05   1.2164e+04
7.0000e-01   5.8240e-05   1.2019e+04
7.5000e-01   6.2864e-05   1.1931e+04
8.0000e-01   6.8118e-05   1.1744e+04
8.5000e-01   7.2944e-05   1.1653e+04
9.0000e-01   7.8466e-05   1.1470e+04
9.5000e-01   8.3518e-05   1.1375e+04
1.0000e+00   8.8840e-05   1.1256e+04
1.0500e+00   8.8930e-05   1.1807e+04
1.1000e+00   9.3822e-05   1.1724e+04
1.1500e+00   9.7970e-05   1.1738e+04
1.2000e+00   1.0309e-04   1.1640e+04
1.2500e+00   1.1228e-04   1.1133e+04
1.3000e+00   4.6514e-05   2.7949e+04
1.3500e+00   4.9906e-05   2.7051e+04
1.4000e+00   5.5102e-05   2.5407e+04
1.4500e+00   6.1560e-05   2.3554e+04
1.5000e+00   6.4120e-05   2.3394e+04
1.5000e+00   6.2752e-05   2.3904e+04
1.4500e+00   5.8926e-05   2.4607e+04
1.4000e+00   5.4478e-05   2.5698e+04
1.3500e+00   4.9236e-05   2.7419e+04
1.3000e+00   4.5106e-05   2.8821e+04
1.2500e+00   4.1870e-05   2.9854e+04
1.2000e+00   3.8752e-05   3.0966e+04
1.1500e+00   3.5684e-05   3.2227e+04
1.1000e+00   3.2852e-05   3.3484e+04
1.0500e+00   3.0038e-05   3.4956e+04
1.0000e+00   2.7660e-05   3.6153e+04
9.5000e-01   2.5914e-05   3.6660e+04
9.0000e-01   2.3540e-05   3.8233e+04
8.5000e-01   2.1194e-05   4.0106e+04
8.0000e-01   1.9064e-05   4.1964e+04
7.5000e-01   1.7028e-05   4.4045e+04
7.0000e-01   1.5096e-05   4.6370e+04
6.5000e-01   1.3196e-05   4.9257e+04
6.0000e-01   1.1510e-05   5.2129e+04
5.5000e-01   9.9585e-06   5.5229e+04
5.0000e-01   8.4532e-06   5.9149e+04
4.5000e-01   7.1497e-06   6.2940e+04
4.0000e-01   5.8935e-06   6.7871e+04
3.5000e-01   4.7862e-06   7.3127e+04
3.0000e-01   3.7937e-06   7.9078e+04
2.5000e-01   2.9248e-06   8.5476e+04
2.0000e-01   2.1116e-06   9.4715e+04
1.5000e-01   1.4664e-06   1.0229e+05
1.0000e-01   8.8280e-07   1.1328e+05
5.0000e-02   4.1256e-07   1.2119e+05
0.0000e+00   1.0413e-09   0.0000e+00
0.0000e+00   8.7490e-10   0.0000e+00
-5.0000e-02   -4.0828e-07   1.2246e+05
-1.0000e-01   -8.8652e-07   1.1280e+05
-1.5000e-01   -1.4900e-06   1.0067e+05
-2.0000e-01   -2.1791e-06   9.1781e+04
-2.5000e-01   -2.9415e-06   8.4991e+04
-3.0000e-01   -3.8205e-06   7.8524e+04
-3.5000e-01   -4.7482e-06   7.3712e+04
-4.0000e-01   -5.8254e-06   6.8665e+04
-4.5000e-01   -7.0199e-06   6.4103e+04
-5.0000e-01   -8.3820e-06   5.9652e+04
-5.5000e-01   -9.7383e-06   5.6478e+04
-6.0000e-01   -1.1287e-05   5.3157e+04
-6.5000e-01   -1.4216e-05   4.5723e+04
-7.0000e-01   -1.6214e-05   4.3173e+04
-7.5000e-01   -1.8120e-05   4.1391e+04
-8.0000e-01   -1.6700e-05   4.7904e+04
-8.5000e-01   -1.9158e-05   4.4368e+04
-9.0000e-01   -2.1206e-05   4.2441e+04
-9.5000e-01   -2.7386e-05   3.4689e+04
-1.0000e+00   -5.4836e-05   1.8236e+04
-1.0500e+00   -7.3452e-05   1.4295e+04
-1.1000e+00   -8.0472e-05   1.3669e+04
-1.1500e+00   -8.9816e-05   1.2804e+04
-1.2000e+00   -9.9688e-05   1.2038e+04
-1.2500e+00   -1.0453e-04   1.1958e+04
-1.3000e+00   -1.1199e-04   1.1608e+04
-1.3500e+00   -1.2052e-04   1.1201e+04
-1.4000e+00   -1.0430e-04   1.3423e+04
-1.4500e+00   -1.3522e-04   1.0723e+04
-1.5000e+00   -1.3074e-04   1.1473e+04
-1.5000e+00   -1.3270e-04   1.1304e+04
-1.4500e+00   -1.3544e-04   1.0706e+04
-1.4000e+00   -1.3128e-04   1.0664e+04
-1.3500e+00   -1.2594e-04   1.0719e+04
-1.3000e+00   -1.2072e-04   1.0769e+04
-1.2500e+00   -1.1800e-04   1.0593e+04
-1.2000e+00   -1.1184e-04   1.0730e+04
-1.1500e+00   -1.0816e-04   1.0632e+04
-1.1000e+00   -1.0216e-04   1.0767e+04
-1.0500e+00   -9.3784e-05   1.1196e+04
-1.0000e+00   -8.7520e-05   1.1426e+04
-9.5000e-01   -8.0898e-05   1.1743e+04
-9.0000e-01   -7.4286e-05   1.2115e+04
-8.5000e-01   -6.9656e-05   1.2203e+04
-8.0000e-01   -6.4230e-05   1.2455e+04
-7.5000e-01   -5.9372e-05   1.2632e+04
-7.0000e-01   -5.4330e-05   1.2884e+04
-6.5000e-01   -4.9324e-05   1.3178e+04
-6.0000e-01   -4.4870e-05   1.3372e+04
-5.5000e-01   -4.0428e-05   1.3604e+04
-5.0000e-01   -3.5992e-05   1.3892e+04
-4.5000e-01   -3.1824e-05   1.4140e+04
-4.0000e-01   -2.7968e-05   1.4302e+04
-3.5000e-01   -2.4024e-05   1.4569e+04
-3.0000e-01   -2.0286e-05   1.4789e+04
-2.5000e-01   -1.6602e-05   1.5058e+04
-2.0000e-01   -1.3068e-05   1.5305e+04
-1.5000e-01   -9.6519e-06   1.5541e+04
-1.0000e-01   -6.3606e-06   1.5722e+04
-5.0000e-02   -3.1495e-06   1.5876e+04
0.0000e+00   9.8736e-09   0.0000e+00
