  Measurement Number     Measurement type
                   8                DC IV

      Measurement ID             SeriesID
       739693.761564                    0

         MeasureMode                Bias1                Bias2
                   2                    2                   -1

                Step  Positive compliance  Negative compliance
                0.05                1e-06                1e-06

  RealMeasuredPoints
                 124

        Bias        Current     Resistance
0.0000e+00   6.5000e-12   0.0000e+00
5.0000e-02   -4.8100e-12   -1.0395e+10
1.0000e-01   7.9000e-13   1.2658e+11
1.5000e-01   -8.0100e-12   -1.8727e+10
2.0000e-01   -7.4000e-13   -2.7027e+11
2.5000e-01   1.2140e-11   2.0593e+10
3.0000e-01   1.2100e-12   2.4793e+11
3.5000e-01   1.0600e-12   3.3019e+11
4.0000e-01   -6.7700e-12   -5.9084e+10
4.5000e-01   1.0340e-11   4.3520e+10
5.0000e-01   1.5460e-11   3.2342e+10
5.5000e-01   -6.9900e-12   -7.8684e+10
6.0000e-01   -1.1130e-11   -5.3908e+10
6.5000e-01   -5.1800e-12   -1.2548e+11
7.0000e-01   1.1730e-11   5.9676e+10
7.5000e-01   1.4890e-11   5.0369e+10
8.0000e-01   3.9300e-12   2.0356e+11
8.5000e-01   3.8000e-13   2.2368e+12
9.0000e-01   -3.6700e-12   -2.4523e+11
9.5000e-01   1.2160e-11   7.8125e+10
1.0000e+00   2.0110e-11   4.9727e+10
1.0500e+00   -1.8000e-12   -5.8333e+11
1.1000e+00   -8.2500e-12   -1.3333e+11
1.1500e+00   1.4700e-12   7.8231e+11
1.2000e+00   1.5280e-11   7.8534e+10
1.2500e+00   2.1240e-11   5.8851e+10
1.3000e+00   1.5300e-12   8.4967e+11
1.3500e+00   -4.4800e-12   -3.0134e+11
1.4000e+00   1.0720e-11   1.3060e+11
1.4500e+00   2.4690e-11   5.8728e+10
1.5000e+00   3.8220e-11   3.9246e+10
1.5500e+00   1.7810e-11   8.7030e+10
1.6000e+00   1.9570e-11   8.1758e+10
1.6500e+00   3.0800e-11   5.3571e+10
1.7000e+00   6.2160e-11   2.7349e+10
1.7500e+00   7.2120e-11   2.4265e+10
1.8000e+00   6.4200e-11   2.8037e+10
1.8500e+00   7.4560e-11   2.4812e+10
1.9000e+00   9.8580e-11   1.9274e+10
1.9500e+00   1.3455e-10   1.4493e+10
2.0000e+00   1.5093e-10   1.3251e+10
2.0000e+00   1.3079e-10   1.5292e+10
1.9500e+00   1.0531e-10   1.8517e+10
1.9000e+00   1.0112e-10   1.8790e+10
1.8500e+00   8.8050e-11   2.1011e+10
1.8000e+00   9.6570e-11   1.8639e+10
1.7500e+00   1.1810e-10   1.4818e+10
1.7000e+00   4.5201e-10   3.7610e+09
1.6500e+00   1.9730e-10   8.3629e+09
1.6000e+00   1.5604e-10   1.0254e+10
1.5500e+00   9.7170e-11   1.5951e+10
1.5000e+00   8.3790e-11   1.7902e+10
1.4500e+00   6.3010e-11   2.3012e+10
1.4000e+00   5.1660e-11   2.7100e+10
1.3500e+00   3.7980e-11   3.5545e+10
1.3000e+00   5.2100e-12   2.4952e+11
1.2500e+00   1.2800e-12   9.7656e+11
1.2000e+00   -2.0000e-13   -6.0000e+12
1.1500e+00   2.2970e-11   5.0065e+10
1.1000e+00   9.7200e-12   1.1317e+11
1.0500e+00   -9.3500e-12   -1.1230e+11
1.0000e+00   -1.5400e-11   -6.4935e+10
9.5000e-01   -8.5000e-13   -1.1176e+12
9.0000e-01   8.4700e-12   1.0626e+11
8.5000e-01   1.4200e-12   5.9859e+11
8.0000e-01   -1.0190e-11   -7.8508e+10
7.5000e-01   -2.1820e-11   -3.4372e+10
7.0000e-01   -1.3590e-11   -5.1508e+10
6.5000e-01   5.6400e-12   1.1525e+11
6.0000e-01   -1.1000e-12   -5.4545e+11
5.5000e-01   -1.1780e-11   -4.6689e+10
5.0000e-01   -1.7020e-11   -2.9377e+10
4.5000e-01   -6.3500e-12   -7.0866e+10
4.0000e-01   5.5600e-12   7.1942e+10
3.5000e-01   -5.4000e-13   -6.4815e+11
3.0000e-01   -1.6240e-11   -1.8473e+10
2.5000e-01   -1.4630e-11   -1.7088e+10
2.0000e-01   -9.0900e-12   -2.2002e+10
1.5000e-01   3.9200e-12   3.8265e+10
1.0000e-01   -2.5000e-13   -4.0000e+11
5.0000e-02   -1.3620e-11   -3.6711e+09
0.0000e+00   -6.2700e-12   -0.0000e+00
0.0000e+00   -1.2910e-11   -0.0000e+00
-5.0000e-02   -3.0600e-12   1.6340e+10
-1.0000e-01   6.1000e-12   -1.6393e+10
-1.5000e-01   5.4100e-12   -2.7726e+10
-2.0000e-01   1.9000e-13   -1.0526e+12
-2.5000e-01   -1.3280e-11   1.8825e+10
-3.0000e-01   -1.2400e-11   2.4194e+10
-3.5000e-01   7.2500e-12   -4.8276e+10
-4.0000e-01   1.5740e-11   -2.5413e+10
-4.5000e-01   1.3400e-12   -3.3582e+11
-5.0000e-01   -1.3690e-11   3.6523e+10
-5.5000e-01   -1.1990e-11   4.5872e+10
-6.0000e-01   -2.2000e-13   2.7273e+12
-6.5000e-01   9.4000e-12   -6.9149e+10
-7.0000e-01   -1.9600e-12   3.5714e+11
-7.5000e-01   -1.5350e-11   4.8860e+10
-8.0000e-01   -1.8590e-11   4.3034e+10
-8.5000e-01   -2.5000e-12   3.4000e+11
-9.0000e-01   5.7300e-12   -1.5707e+11
-9.5000e-01   -1.0700e-12   8.8785e+11
-1.0000e+00   -1.6150e-11   6.1920e+10
-1.0000e+00   3.0600e-12   -3.2680e+11
-9.5000e-01   9.5900e-12   -9.9062e+10
-9.0000e-01   4.3300e-12   -2.0785e+11
-8.5000e-01   -1.2730e-11   6.6771e+10
-8.0000e-01   -6.3700e-12   1.2559e+11
-7.5000e-01   8.2500e-12   -9.0909e+10
-7.0000e-01   1.5620e-11   -4.4814e+10
-6.5000e-01   7.3500e-12   -8.8435e+10
-6.0000e-01   8.0300e-12   -7.4720e+10
-5.5000e-01   -7.8000e-12   7.0513e+10
-5.0000e-01   -1.9700e-12   2.5381e+11
-4.5000e-01   1.8710e-11   -2.4051e+10
-4.0000e-01   9.5000e-12   -4.2105e+10
-3.5000e-01   -4.7300e-12   7.3996e+10
-3.0000e-01   -7.2900e-12   4.1152e+10
-2.5000e-01   1.3600e-11   -1.8382e+10
-2.0000e-01   2.0740e-11   -9.6432e+09
-1.5000e-01   1.1640e-11   -1.2887e+10
-1.0000e-01   6.8600e-12   -1.4577e+10
-5.0000e-02   -1.0110e-11   4.9456e+09
0.0000e+00   -1.6290e-11   -0.0000e+00
